#temperature (K)# #Gibbs free energy (kJ / mol)#
100.0 -7465606.62966
110.0 -7465610.05316
120.0 -7465613.60259
130.0 -7465617.27811
140.0 -7465621.07954
150.0 -7465625.00644
160.0 -7465629.05814
170.0 -7465633.23384
180.0 -7465637.53261
190.0 -7465641.95342
200.0 -7465646.49516
210.0 -7465651.15667
220.0 -7465655.93672
230.0 -7465660.83405
240.0 -7465665.84735
250.0 -7465670.97531
260.0 -7465676.21655
270.0 -7465681.56971
280.0 -7465687.03339
290.0 -7465692.60618
300.0 -7465698.28667
310.0 -7465704.07346
320.0 -7465709.96511
330.0 -7465715.96021
340.0 -7465722.05735
350.0 -7465728.25513
360.0 -7465734.55216
370.0 -7465740.94705
380.0 -7465747.43844
390.0 -7465754.02498
400.0 -7465760.70532
410.0 -7465767.47816
420.0 -7465774.34219
430.0 -7465781.29614
440.0 -7465788.33874
450.0 -7465795.46876
460.0 -7465802.68498
470.0 -7465809.98621
480.0 -7465817.37127
490.0 -7465824.83901
500.0 -7465832.3883
510.0 -7465840.01803
520.0 -7465847.72712
530.0 -7465855.51449
540.0 -7465863.37911
550.0 -7465871.31995
560.0 -7465879.336
570.0 -7465887.42629
580.0 -7465895.58985
590.0 -7465903.82574
600.0 -7465912.13303
610.0 -7465920.51083
620.0 -7465928.95824
630.0 -7465937.47441
640.0 -7465946.05847
650.0 -7465954.70959
660.0 -7465963.42697
670.0 -7465972.2098
680.0 -7465981.0573
690.0 -7465989.96871
700.0 -7465998.94327
710.0 -7466007.98025
720.0 -7466017.07893
730.0 -7466026.23861
740.0 -7466035.45858
750.0 -7466044.73818
760.0 -7466054.07673
770.0 -7466063.47359
780.0 -7466072.92812
790.0 -7466082.43969
800.0 -7466092.00769
810.0 -7466101.63152
820.0 -7466111.31058
830.0 -7466121.04429
840.0 -7466130.83209
850.0 -7466140.67343
860.0 -7466150.56774
870.0 -7466160.5145
880.0 -7466170.51317
890.0 -7466180.56325
900.0 -7466190.66422
910.0 -7466200.81558
920.0 -7466211.01685
930.0 -7466221.26754
940.0 -7466231.56719
950.0 -7466241.91531
960.0 -7466252.31148
970.0 -7466262.75522
980.0 -7466273.24611
990.0 -7466283.7837
1000.0 -7466294.36759
1010.0 -7466304.99734
1020.0 -7466315.67254
1030.0 -7466326.3928
1040.0 -7466337.15772
1050.0 -7466347.9669
1060.0 -7466358.81996
1070.0 -7466369.71653
1080.0 -7466380.65622
1090.0 -7466391.63868
1100.0 -7466402.66355
1110.0 -7466413.73047
1120.0 -7466424.83909
1130.0 -7466435.98907
1140.0 -7466447.18007
1150.0 -7466458.41176
1160.0 -7466469.68382
1170.0 -7466480.99591
1180.0 -7466492.34772
1190.0 -7466503.73895
1200.0 -7466515.16927
1210.0 -7466526.6384
1220.0 -7466538.14602
1230.0 -7466549.69185
1240.0 -7466561.27559
1250.0 -7466572.89696
1260.0 -7466584.55568
1270.0 -7466596.25146
1280.0 -7466607.98405
1290.0 -7466619.75315
1300.0 -7466631.55852
1310.0 -7466643.39988
1320.0 -7466655.27698
1330.0 -7466667.18956
1340.0 -7466679.13737
1350.0 -7466691.12016
1360.0 -7466703.1377
1370.0 -7466715.18972
1380.0 -7466727.27601
1390.0 -7466739.39632
1400.0 -7466751.55041
1410.0 -7466763.73807
1420.0 -7466775.95907
1430.0 -7466788.21318
1440.0 -7466800.50018
1450.0 -7466812.81985
1460.0 -7466825.17199
1470.0 -7466837.55637
1480.0 -7466849.97279
1490.0 -7466862.42105
1500.0 -7466874.90094
1510.0 -7466887.41225
1520.0 -7466899.95479
1530.0 -7466912.52836
1540.0 -7466925.13277
1550.0 -7466937.76783
1560.0 -7466950.43335
1570.0 -7466963.12913
1580.0 -7466975.855
1590.0 -7466988.61077
1600.0 -7467001.39626
1610.0 -7467014.2113
1620.0 -7467027.0557
1630.0 -7467039.9293
1640.0 -7467052.83192
1650.0 -7467065.76338
1660.0 -7467078.72353
1670.0 -7467091.71219
1680.0 -7467104.72921
1690.0 -7467117.77441
1700.0 -7467130.84764
1710.0 -7467143.94874
1720.0 -7467157.07755
1730.0 -7467170.23391
1740.0 -7467183.41768
1750.0 -7467196.62869
1760.0 -7467209.86681
1770.0 -7467223.13187
1780.0 -7467236.42374
1790.0 -7467249.74226
1800.0 -7467263.08729
1810.0 -7467276.4587
1820.0 -7467289.85633
1830.0 -7467303.28006
1840.0 -7467316.72973
1850.0 -7467330.20522
1860.0 -7467343.70639
1870.0 -7467357.2331
1880.0 -7467370.78522
1890.0 -7467384.36262
1900.0 -7467397.96518
1910.0 -7467411.59276
1920.0 -7467425.24523
1930.0 -7467438.92247
1940.0 -7467452.62435
1950.0 -7467466.35076
1960.0 -7467480.10156
1970.0 -7467493.87664
1980.0 -7467507.67588
1990.0 -7467521.49915
2000.0 -7467535.34635
2010.0 -7467549.21735
2020.0 -7467563.11203
2030.0 -7467577.0303
2040.0 -7467590.97202
2050.0 -7467604.93709
2060.0 -7467618.9254
2070.0 -7467632.93683
2080.0 -7467646.97129
2090.0 -7467661.02865
2100.0 -7467675.10882
2110.0 -7467689.21168
2120.0 -7467703.33714
2130.0 -7467717.48509
2140.0 -7467731.65542
2150.0 -7467745.84803
2160.0 -7467760.06282
2170.0 -7467774.2997
2180.0 -7467788.55855
2190.0 -7467802.83929
2200.0 -7467817.14181
2210.0 -7467831.46602
2220.0 -7467845.81183
2230.0 -7467860.17912
2240.0 -7467874.56783
2250.0 -7467888.97784
2260.0 -7467903.40906
2270.0 -7467917.86141
2280.0 -7467932.33479
2290.0 -7467946.82911
2300.0 -7467961.34429
2310.0 -7467975.88023
2320.0 -7467990.43684
2330.0 -7468005.01405
2340.0 -7468019.61175
2350.0 -7468034.22987
2360.0 -7468048.86832
2370.0 -7468063.52702
2380.0 -7468078.20587
2390.0 -7468092.90481
2400.0 -7468107.62374
2410.0 -7468122.36258
2420.0 -7468137.12126
2430.0 -7468151.89969
2440.0 -7468166.6978
2450.0 -7468181.51549
2460.0 -7468196.3527
2470.0 -7468211.20935
2480.0 -7468226.08536
2490.0 -7468240.98065
2500.0 -7468255.89515
2510.0 -7468270.82877
2520.0 -7468285.78146
2530.0 -7468300.75312
2540.0 -7468315.7437
2550.0 -7468330.7531
2560.0 -7468345.78127
2570.0 -7468360.82813
2580.0 -7468375.89361
2590.0 -7468390.97763
2600.0 -7468406.08013
2610.0 -7468421.20104
2620.0 -7468436.34028
2630.0 -7468451.49779
2640.0 -7468466.6735
2650.0 -7468481.86735
2660.0 -7468497.07925
2670.0 -7468512.30916
2680.0 -7468527.557
2690.0 -7468542.8227
2700.0 -7468558.1062
2710.0 -7468573.40743
2720.0 -7468588.72634
2730.0 -7468604.06285
2740.0 -7468619.4169
2750.0 -7468634.78844
2760.0 -7468650.17739
2770.0 -7468665.58369
2780.0 -7468681.00729
2790.0 -7468696.44811
2800.0 -7468711.90611
2810.0 -7468727.38122
2820.0 -7468742.87338
2830.0 -7468758.38252
2840.0 -7468773.9086
2850.0 -7468789.45155
2860.0 -7468805.01131
2870.0 -7468820.58783
2880.0 -7468836.18105
2890.0 -7468851.7909
2900.0 -7468867.41734
2910.0 -7468883.06031
2920.0 -7468898.71974
2930.0 -7468914.3956
2940.0 -7468930.08781
2950.0 -7468945.79633
2960.0 -7468961.52109
2970.0 -7468977.26206
2980.0 -7468993.01916
2990.0 -7469008.79236
3000.0 -7469024.58159
3010.0 -7469040.3868
3020.0 -7469056.20794
3030.0 -7469072.04496
3040.0 -7469087.89781
