#temperature (K)# #Gibbs free energy (kJ / mol)#
100.0 -1034898.8443
110.0 -1034901.14773
120.0 -1034903.49021
130.0 -1034905.86991
140.0 -1034908.2853
150.0 -1034910.73504
160.0 -1034913.21794
170.0 -1034915.73297
180.0 -1034918.27916
190.0 -1034920.85567
200.0 -1034923.46168
210.0 -1034926.09645
220.0 -1034928.75929
230.0 -1034931.44954
240.0 -1034934.16657
250.0 -1034936.90978
260.0 -1034939.67861
270.0 -1034942.47252
280.0 -1034945.29097
290.0 -1034948.13347
300.0 -1034950.99953
310.0 -1034953.88868
320.0 -1034956.80045
330.0 -1034959.73443
340.0 -1034962.69016
350.0 -1034965.66726
360.0 -1034968.66531
370.0 -1034971.68392
380.0 -1034974.72273
390.0 -1034977.78137
400.0 -1034980.85948
410.0 -1034983.95672
420.0 -1034987.07275
430.0 -1034990.20726
440.0 -1034993.35993
450.0 -1034996.53045
460.0 -1034999.71852
470.0 -1035002.92387
480.0 -1035006.1462
490.0 -1035009.38525
500.0 -1035012.64075
510.0 -1035015.91244
520.0 -1035019.20008
530.0 -1035022.50342
540.0 -1035025.82223
550.0 -1035029.15627
560.0 -1035032.50532
570.0 -1035035.86917
580.0 -1035039.24759
590.0 -1035042.64039
600.0 -1035046.04737
610.0 -1035049.46832
620.0 -1035052.90306
630.0 -1035056.35141
640.0 -1035059.81317
650.0 -1035063.28818
660.0 -1035066.77627
670.0 -1035070.27726
680.0 -1035073.79099
690.0 -1035077.31732
700.0 -1035080.85607
710.0 -1035084.40709
720.0 -1035087.97025
730.0 -1035091.5454
740.0 -1035095.13239
750.0 -1035098.73109
760.0 -1035102.34137
770.0 -1035105.96309
780.0 -1035109.59613
790.0 -1035113.24036
800.0 -1035116.89567
810.0 -1035120.56192
820.0 -1035124.23901
830.0 -1035127.92682
840.0 -1035131.62523
850.0 -1035135.33415
860.0 -1035139.05347
870.0 -1035142.78307
880.0 -1035146.52287
890.0 -1035150.27275
900.0 -1035154.03262
910.0 -1035157.80239
920.0 -1035161.58196
930.0 -1035165.37124
940.0 -1035169.17014
950.0 -1035172.97857
960.0 -1035176.79644
970.0 -1035180.62368
980.0 -1035184.4602
990.0 -1035188.30591
1000.0 -1035192.16074
1010.0 -1035196.02461
1020.0 -1035199.89745
1030.0 -1035203.77916
1040.0 -1035207.66969
1050.0 -1035211.56897
1060.0 -1035215.47691
1070.0 -1035219.39344
1080.0 -1035223.31851
1090.0 -1035227.25204
1100.0 -1035231.19397
1110.0 -1035235.14423
1120.0 -1035239.10275
1130.0 -1035243.06948
1140.0 -1035247.04434
1150.0 -1035251.02729
1160.0 -1035255.01826
1170.0 -1035259.01719
1180.0 -1035263.02402
1190.0 -1035267.0387
1200.0 -1035271.06117
1210.0 -1035275.09137
1220.0 -1035279.12926
1230.0 -1035283.17477
1240.0 -1035287.22785
1250.0 -1035291.28845
1260.0 -1035295.35653
1270.0 -1035299.43202
1280.0 -1035303.51488
1290.0 -1035307.60507
1300.0 -1035311.70253
1310.0 -1035315.80721
1320.0 -1035319.91906
1330.0 -1035324.03805
1340.0 -1035328.16413
1350.0 -1035332.29725
1360.0 -1035336.43736
1370.0 -1035340.58442
1380.0 -1035344.73839
1390.0 -1035348.89923
1400.0 -1035353.0669
1410.0 -1035357.24134
1420.0 -1035361.42253
1430.0 -1035365.61042
1440.0 -1035369.80497
1450.0 -1035374.00614
1460.0 -1035378.21389
1470.0 -1035382.42818
1480.0 -1035386.64899
1490.0 -1035390.87626
1500.0 -1035395.10996
1510.0 -1035399.35005
1520.0 -1035403.5965
1530.0 -1035407.84928
1540.0 -1035412.10834
1550.0 -1035416.37366
1560.0 -1035420.64519
1570.0 -1035424.9229
1580.0 -1035429.20677
1590.0 -1035433.49675
1600.0 -1035437.79281
1610.0 -1035442.09492
1620.0 -1035446.40305
1630.0 -1035450.71717
1640.0 -1035455.03724
1650.0 -1035459.36323
1660.0 -1035463.69512
1670.0 -1035468.03286
1680.0 -1035472.37644
1690.0 -1035476.72582
1700.0 -1035481.08097
1710.0 -1035485.44186
1720.0 -1035489.80847
1730.0 -1035494.18076
1740.0 -1035498.55871
1750.0 -1035502.94229
1760.0 -1035507.33146
1770.0 -1035511.72621
1780.0 -1035516.1265
1790.0 -1035520.53231
1800.0 -1035524.94362
1810.0 -1035529.36038
1820.0 -1035533.78259
1830.0 -1035538.21021
1840.0 -1035542.64321
1850.0 -1035547.08158
1860.0 -1035551.52528
1870.0 -1035555.9743
1880.0 -1035560.4286
1890.0 -1035564.88816
1900.0 -1035569.35296
1910.0 -1035573.82298
1920.0 -1035578.29818
1930.0 -1035582.77855
1940.0 -1035587.26406
1950.0 -1035591.75469
1960.0 -1035596.25042
1970.0 -1035600.75122
1980.0 -1035605.25707
1990.0 -1035609.76795
2000.0 -1035614.28383
2010.0 -1035618.8047
2020.0 -1035623.33053
2030.0 -1035627.8613
2040.0 -1035632.39699
2050.0 -1035636.93758
2060.0 -1035641.48305
2070.0 -1035646.03337
2080.0 -1035650.58853
2090.0 -1035655.1485
2100.0 -1035659.71327
2110.0 -1035664.2828
2120.0 -1035668.8571
2130.0 -1035673.43613
2140.0 -1035678.01987
2150.0 -1035682.60831
2160.0 -1035687.20142
2170.0 -1035691.79919
2180.0 -1035696.40159
2190.0 -1035701.00862
2200.0 -1035705.62024
2210.0 -1035710.23645
2220.0 -1035714.85721
2230.0 -1035719.48252
2240.0 -1035724.11236
2250.0 -1035728.7467
2260.0 -1035733.38554
2270.0 -1035738.02885
2280.0 -1035742.67661
2290.0 -1035747.32881
2300.0 -1035751.98542
2310.0 -1035756.64644
2320.0 -1035761.31185
2330.0 -1035765.98162
2340.0 -1035770.65575
2350.0 -1035775.33421
2360.0 -1035780.01699
2370.0 -1035784.70407
2380.0 -1035789.39544
2390.0 -1035794.09107
2400.0 -1035798.79096
2410.0 -1035803.49509
2420.0 -1035808.20344
2430.0 -1035812.91599
2440.0 -1035817.63273
2450.0 -1035822.35365
2460.0 -1035827.07873
2470.0 -1035831.80795
2480.0 -1035836.5413
2490.0 -1035841.27877
2500.0 -1035846.02033
2510.0 -1035850.76597
2520.0 -1035855.51569
2530.0 -1035860.26946
2540.0 -1035865.02727
2550.0 -1035869.7891
2560.0 -1035874.55495
2570.0 -1035879.32479
2580.0 -1035884.09862
2590.0 -1035888.87641
2600.0 -1035893.65816
2610.0 -1035898.44385
2620.0 -1035903.23347
2630.0 -1035908.027
2640.0 -1035912.82443
2650.0 -1035917.62575
2660.0 -1035922.43094
2670.0 -1035927.23999
2680.0 -1035932.05289
2690.0 -1035936.86962
2700.0 -1035941.69017
2710.0 -1035946.51453
2720.0 -1035951.34268
2730.0 -1035956.17461
2740.0 -1035961.01032
2750.0 -1035965.84978
2760.0 -1035970.69298
2770.0 -1035975.53992
2780.0 -1035980.39057
2790.0 -1035985.24493
2800.0 -1035990.10299
2810.0 -1035994.96473
2820.0 -1035999.83014
2830.0 -1036004.69921
2840.0 -1036009.57192
2850.0 -1036014.44827
2860.0 -1036019.32824
2870.0 -1036024.21182
2880.0 -1036029.09901
2890.0 -1036033.98978
2900.0 -1036038.88413
2910.0 -1036043.78204
2920.0 -1036048.68351
2930.0 -1036053.58852
2940.0 -1036058.49706
2950.0 -1036063.40912
2960.0 -1036068.3247
2970.0 -1036073.24377
2980.0 -1036078.16632
2990.0 -1036083.09236
3000.0 -1036088.02186
3010.0 -1036092.95482
3020.0 -1036097.89122
3030.0 -1036102.83105
3040.0 -1036107.77431
