#temperature (K)# #Gibbs free energy (kJ / mol)#
100.0 -1445945.55698
110.0 -1445947.8989
120.0 -1445950.27554
130.0 -1445952.68507
140.0 -1445955.12604
150.0 -1445957.59726
160.0 -1445960.09771
170.0 -1445962.62656
180.0 -1445965.18304
190.0 -1445967.76648
200.0 -1445970.37628
210.0 -1445973.01186
220.0 -1445975.67267
230.0 -1445978.35822
240.0 -1445981.06799
250.0 -1445983.80153
260.0 -1445986.55836
270.0 -1445989.33803
280.0 -1445992.14011
290.0 -1445994.96417
300.0 -1445997.80979
310.0 -1446000.67656
320.0 -1446003.56409
330.0 -1446006.47198
340.0 -1446009.39986
350.0 -1446012.34736
360.0 -1446015.31412
370.0 -1446018.29979
380.0 -1446021.30402
390.0 -1446024.32649
400.0 -1446027.36686
410.0 -1446030.42483
420.0 -1446033.50009
430.0 -1446036.59233
440.0 -1446039.70127
450.0 -1446042.82663
460.0 -1446045.96813
470.0 -1446049.1255
480.0 -1446052.29848
490.0 -1446055.48682
500.0 -1446058.69028
510.0 -1446061.90861
520.0 -1446065.14158
530.0 -1446068.38896
540.0 -1446071.65054
550.0 -1446074.9261
560.0 -1446078.21542
570.0 -1446081.5183
580.0 -1446084.83455
590.0 -1446088.16398
600.0 -1446091.50638
610.0 -1446094.86159
620.0 -1446098.22942
630.0 -1446101.60969
640.0 -1446105.00224
650.0 -1446108.4069
660.0 -1446111.82351
670.0 -1446115.25191
680.0 -1446118.69194
690.0 -1446122.14346
700.0 -1446125.60632
710.0 -1446129.08037
720.0 -1446132.56548
730.0 -1446136.0615
740.0 -1446139.56831
750.0 -1446143.08577
760.0 -1446146.61376
770.0 -1446150.15215
780.0 -1446153.70082
790.0 -1446157.25965
800.0 -1446160.82852
810.0 -1446164.40732
820.0 -1446167.99593
830.0 -1446171.59425
840.0 -1446175.20217
850.0 -1446178.81959
860.0 -1446182.44639
870.0 -1446186.08249
880.0 -1446189.72778
890.0 -1446193.38216
900.0 -1446197.04555
910.0 -1446200.71784
920.0 -1446204.39895
930.0 -1446208.08879
940.0 -1446211.78727
950.0 -1446215.4943
960.0 -1446219.20981
970.0 -1446222.9337
980.0 -1446226.66589
990.0 -1446230.40632
1000.0 -1446234.15489
1010.0 -1446237.91153
1020.0 -1446241.67617
1030.0 -1446245.44873
1040.0 -1446249.22914
1050.0 -1446253.01733
1060.0 -1446256.81323
1070.0 -1446260.61676
1080.0 -1446264.42787
1090.0 -1446268.24649
1100.0 -1446272.07254
1110.0 -1446275.90597
1120.0 -1446279.74671
1130.0 -1446283.59469
1140.0 -1446287.44987
1150.0 -1446291.31218
1160.0 -1446295.18155
1170.0 -1446299.05794
1180.0 -1446302.94128
1190.0 -1446306.83151
1200.0 -1446310.72859
1210.0 -1446314.63245
1220.0 -1446318.54305
1230.0 -1446322.46032
1240.0 -1446326.38423
1250.0 -1446330.31471
1260.0 -1446334.25171
1270.0 -1446338.19519
1280.0 -1446342.1451
1290.0 -1446346.10139
1300.0 -1446350.06401
1310.0 -1446354.03291
1320.0 -1446358.00805
1330.0 -1446361.98938
1340.0 -1446365.97685
1350.0 -1446369.97043
1360.0 -1446373.97007
1370.0 -1446377.97572
1380.0 -1446381.98735
1390.0 -1446386.00491
1400.0 -1446390.02835
1410.0 -1446394.05765
1420.0 -1446398.09275
1430.0 -1446402.13363
1440.0 -1446406.18023
1450.0 -1446410.23252
1460.0 -1446414.29047
1470.0 -1446418.35403
1480.0 -1446422.42317
1490.0 -1446426.49786
1500.0 -1446430.57804
1510.0 -1446434.6637
1520.0 -1446438.75479
1530.0 -1446442.85128
1540.0 -1446446.95314
1550.0 -1446451.06033
1560.0 -1446455.17281
1570.0 -1446459.29056
1580.0 -1446463.41354
1590.0 -1446467.54172
1600.0 -1446471.67507
1610.0 -1446475.81355
1620.0 -1446479.95714
1630.0 -1446484.10581
1640.0 -1446488.25951
1650.0 -1446492.41823
1660.0 -1446496.58194
1670.0 -1446500.75059
1680.0 -1446504.92418
1690.0 -1446509.10266
1700.0 -1446513.28601
1710.0 -1446517.4742
1720.0 -1446521.6672
1730.0 -1446525.86498
1740.0 -1446530.06753
1750.0 -1446534.27481
1760.0 -1446538.48679
1770.0 -1446542.70345
1780.0 -1446546.92476
1790.0 -1446551.1507
1800.0 -1446555.38124
1810.0 -1446559.61635
1820.0 -1446563.85602
1830.0 -1446568.10022
1840.0 -1446572.34892
1850.0 -1446576.60209
1860.0 -1446580.85972
1870.0 -1446585.12179
1880.0 -1446589.38826
1890.0 -1446593.65912
1900.0 -1446597.93434
1910.0 -1446602.21389
1920.0 -1446606.49777
1930.0 -1446610.78594
1940.0 -1446615.07839
1950.0 -1446619.37508
1960.0 -1446623.67601
1970.0 -1446627.98115
1980.0 -1446632.29047
1990.0 -1446636.60396
2000.0 -1446640.9216
2010.0 -1446645.24336
2020.0 -1446649.56923
2030.0 -1446653.89919
2040.0 -1446658.23321
2050.0 -1446662.57127
2060.0 -1446666.91337
2070.0 -1446671.25947
2080.0 -1446675.60956
2090.0 -1446679.96362
2100.0 -1446684.32163
2110.0 -1446688.68357
2120.0 -1446693.04943
2130.0 -1446697.41918
2140.0 -1446701.79281
2150.0 -1446706.17031
2160.0 -1446710.55164
2170.0 -1446714.93679
2180.0 -1446719.32576
2190.0 -1446723.71851
2200.0 -1446728.11504
2210.0 -1446732.51532
2220.0 -1446736.91934
2230.0 -1446741.32709
2240.0 -1446745.73854
2250.0 -1446750.15368
2260.0 -1446754.57249
2270.0 -1446758.99496
2280.0 -1446763.42107
2290.0 -1446767.85081
2300.0 -1446772.28416
2310.0 -1446776.7211
2320.0 -1446781.16162
2330.0 -1446785.6057
2340.0 -1446790.05334
2350.0 -1446794.5045
2360.0 -1446798.95919
2370.0 -1446803.41738
2380.0 -1446807.87906
2390.0 -1446812.34421
2400.0 -1446816.81283
2410.0 -1446821.28489
2420.0 -1446825.76038
2430.0 -1446830.23929
2440.0 -1446834.72161
2450.0 -1446839.20731
2460.0 -1446843.6964
2470.0 -1446848.18884
2480.0 -1446852.68464
2490.0 -1446857.18377
2500.0 -1446861.68622
2510.0 -1446866.19199
2520.0 -1446870.70105
2530.0 -1446875.21339
2540.0 -1446879.72901
2550.0 -1446884.24788
2560.0 -1446888.77
2570.0 -1446893.29535
2580.0 -1446897.82392
2590.0 -1446902.3557
2600.0 -1446906.89068
2610.0 -1446911.42884
2620.0 -1446915.97017
2630.0 -1446920.51466
2640.0 -1446925.0623
2650.0 -1446929.61307
2660.0 -1446934.16697
2670.0 -1446938.72398
2680.0 -1446943.2841
2690.0 -1446947.8473
2700.0 -1446952.41358
2710.0 -1446956.98292
2720.0 -1446961.55532
2730.0 -1446966.13077
2740.0 -1446970.70925
2750.0 -1446975.29075
2760.0 -1446979.87526
2770.0 -1446984.46278
2780.0 -1446989.05328
2790.0 -1446993.64676
2800.0 -1446998.24321
2810.0 -1447002.84262
2820.0 -1447007.44498
2830.0 -1447012.05027
2840.0 -1447016.65849
2850.0 -1447021.26963
2860.0 -1447025.88367
2870.0 -1447030.50061
2880.0 -1447035.12044
2890.0 -1447039.74314
2900.0 -1447044.36871
2910.0 -1447048.99714
2920.0 -1447053.62841
2930.0 -1447058.26253
2940.0 -1447062.89946
2950.0 -1447067.53922
2960.0 -1447072.18179
2970.0 -1447076.82715
2980.0 -1447081.47531
2990.0 -1447086.12624
3000.0 -1447090.77995
3010.0 -1447095.43642
3020.0 -1447100.09564
3030.0 -1447104.75761
3040.0 -1447109.42231
