#temperature (K)# #Gibbs free energy (kJ / mol)#
100.0 -923592.437501
110.0 -923594.641213
120.0 -923596.894666
130.0 -923599.195045
140.0 -923601.539918
150.0 -923603.927155
160.0 -923606.354876
170.0 -923608.8214
180.0 -923611.325211
190.0 -923613.864932
200.0 -923616.439303
210.0 -923619.04716
220.0 -923621.687429
230.0 -923624.359106
240.0 -923627.061256
250.0 -923629.792998
260.0 -923632.553506
270.0 -923635.341999
280.0 -923638.157737
290.0 -923641.000019
300.0 -923643.86818
310.0 -923646.761586
320.0 -923649.679631
330.0 -923652.621738
340.0 -923655.587356
350.0 -923658.575956
360.0 -923661.587032
370.0 -923664.620098
380.0 -923667.67469
390.0 -923670.750358
400.0 -923673.846672
410.0 -923676.963219
420.0 -923680.099598
430.0 -923683.255426
440.0 -923686.430332
450.0 -923689.623959
460.0 -923692.835961
470.0 -923696.066005
480.0 -923699.31377
490.0 -923702.578944
500.0 -923705.861227
510.0 -923709.160326
520.0 -923712.475961
530.0 -923715.807858
540.0 -923719.155754
550.0 -923722.519391
560.0 -923725.898523
570.0 -923729.292908
580.0 -923732.702313
590.0 -923736.126511
600.0 -923739.565283
610.0 -923743.018415
620.0 -923746.485699
630.0 -923749.966935
640.0 -923753.461926
650.0 -923756.970483
660.0 -923760.49242
670.0 -923764.027558
680.0 -923767.575721
690.0 -923771.136739
700.0 -923774.710447
710.0 -923778.296683
720.0 -923781.895289
730.0 -923785.506114
740.0 -923789.129006
750.0 -923792.763822
760.0 -923796.410419
770.0 -923800.06866
780.0 -923803.738409
790.0 -923807.419534
800.0 -923811.111908
810.0 -923814.815406
820.0 -923818.529904
830.0 -923822.255284
840.0 -923825.991429
850.0 -923829.738225
860.0 -923833.495561
870.0 -923837.263327
880.0 -923841.041418
890.0 -923844.82973
900.0 -923848.62816
910.0 -923852.436609
920.0 -923856.25498
930.0 -923860.083177
940.0 -923863.921108
950.0 -923867.76868
960.0 -923871.625804
970.0 -923875.492393
980.0 -923879.36836
990.0 -923883.253622
1000.0 -923887.148096
1010.0 -923891.051701
1020.0 -923894.964357
1030.0 -923898.885988
1040.0 -923902.816516
1050.0 -923906.755866
1060.0 -923910.703966
1070.0 -923914.660743
1080.0 -923918.626127
1090.0 -923922.600046
1100.0 -923926.582435
1110.0 -923930.573224
1120.0 -923934.572349
1130.0 -923938.579745
1140.0 -923942.595348
1150.0 -923946.619094
1160.0 -923950.650924
1170.0 -923954.690776
1180.0 -923958.738591
1190.0 -923962.79431
1200.0 -923966.857876
1210.0 -923970.929232
1220.0 -923975.008322
1230.0 -923979.095092
1240.0 -923983.189487
1250.0 -923987.291454
1260.0 -923991.40094
1270.0 -923995.517895
1280.0 -923999.642267
1290.0 -924003.774006
1300.0 -924007.913062
1310.0 -924012.059388
1320.0 -924016.212935
1330.0 -924020.373657
1340.0 -924024.541505
1350.0 -924028.716435
1360.0 -924032.898401
1370.0 -924037.087358
1380.0 -924041.283263
1390.0 -924045.486072
1400.0 -924049.695742
1410.0 -924053.912231
1420.0 -924058.135496
1430.0 -924062.365498
1440.0 -924066.602194
1450.0 -924070.845545
1460.0 -924075.095512
1470.0 -924079.352055
1480.0 -924083.615135
1490.0 -924087.884714
1500.0 -924092.160755
1510.0 -924096.443221
1520.0 -924100.732074
1530.0 -924105.027278
1540.0 -924109.328797
1550.0 -924113.636596
1560.0 -924117.95064
1570.0 -924122.270893
1580.0 -924126.597323
1590.0 -924130.929894
1600.0 -924135.268574
1610.0 -924139.613329
1620.0 -924143.964126
1630.0 -924148.320934
1640.0 -924152.683719
1650.0 -924157.052452
1660.0 -924161.427099
1670.0 -924165.80763
1680.0 -924170.194015
1690.0 -924174.586224
1700.0 -924178.984225
1710.0 -924183.38799
1720.0 -924187.797489
1730.0 -924192.212694
1740.0 -924196.633574
1750.0 -924201.060103
1760.0 -924205.492251
1770.0 -924209.929991
1780.0 -924214.373295
1790.0 -924218.822136
1800.0 -924223.276487
1810.0 -924227.736322
1820.0 -924232.201612
1830.0 -924236.672333
1840.0 -924241.148458
1850.0 -924245.629961
1860.0 -924250.116818
1870.0 -924254.609002
1880.0 -924259.106489
1890.0 -924263.609254
1900.0 -924268.117272
1910.0 -924272.630519
1920.0 -924277.148971
1930.0 -924281.672604
1940.0 -924286.201394
1950.0 -924290.735318
1960.0 -924295.274353
1970.0 -924299.818476
1980.0 -924304.367663
1990.0 -924308.921892
2000.0 -924313.481142
2010.0 -924318.045389
2020.0 -924322.614611
2030.0 -924327.188788
2040.0 -924331.767896
2050.0 -924336.351916
2060.0 -924340.940824
2070.0 -924345.534601
2080.0 -924350.133226
2090.0 -924354.736677
2100.0 -924359.344935
2110.0 -924363.957978
2120.0 -924368.575787
2130.0 -924373.198341
2140.0 -924377.825622
2150.0 -924382.457608
2160.0 -924387.094281
2170.0 -924391.735621
2180.0 -924396.381609
2190.0 -924401.032226
2200.0 -924405.687453
2210.0 -924410.347271
2220.0 -924415.011661
2230.0 -924419.680606
2240.0 -924424.354087
2250.0 -924429.032085
2260.0 -924433.714583
2270.0 -924438.401563
2280.0 -924443.093006
2290.0 -924447.788897
2300.0 -924452.489216
2310.0 -924457.193947
2320.0 -924461.903072
2330.0 -924466.616575
2340.0 -924471.334438
2350.0 -924476.056644
2360.0 -924480.783178
2370.0 -924485.514022
2380.0 -924490.24916
2390.0 -924494.988576
2400.0 -924499.732253
2410.0 -924504.480176
2420.0 -924509.232328
2430.0 -924513.988693
2440.0 -924518.749257
2450.0 -924523.514003
2460.0 -924528.282916
2470.0 -924533.05598
2480.0 -924537.833181
2490.0 -924542.614502
2500.0 -924547.39993
2510.0 -924552.189449
2520.0 -924556.983043
2530.0 -924561.7807
2540.0 -924566.582403
2550.0 -924571.388139
2560.0 -924576.197893
2570.0 -924581.01165
2580.0 -924585.829397
2590.0 -924590.651119
2600.0 -924595.476802
2610.0 -924600.306433
2620.0 -924605.139998
2630.0 -924609.977482
2640.0 -924614.818872
2650.0 -924619.664155
2660.0 -924624.513318
2670.0 -924629.366346
2680.0 -924634.223226
2690.0 -924639.083946
2700.0 -924643.948493
2710.0 -924648.816852
2720.0 -924653.689012
2730.0 -924658.564959
2740.0 -924663.444681
2750.0 -924668.328166
2760.0 -924673.215399
2770.0 -924678.10637
2780.0 -924683.001065
2790.0 -924687.899472
2800.0 -924692.80158
2810.0 -924697.707375
2820.0 -924702.616846
2830.0 -924707.52998
2840.0 -924712.446767
2850.0 -924717.367193
2860.0 -924722.291247
2870.0 -924727.218917
2880.0 -924732.150192
2890.0 -924737.08506
2900.0 -924742.02351
2910.0 -924746.965529
2920.0 -924751.911108
2930.0 -924756.860234
2940.0 -924761.812896
2950.0 -924766.769083
2960.0 -924771.728785
2970.0 -924776.691989
2980.0 -924781.658685
2990.0 -924786.628863
3000.0 -924791.602511
3010.0 -924796.579618
3020.0 -924801.560175
3030.0 -924806.54417
3040.0 -924811.531592
