#temperature (K)# #Gibbs free energy (kJ / mol)#
100.0 -2873538.52699
110.0 -2873541.17787
120.0 -2873543.8804
130.0 -2873546.63236
140.0 -2873549.43184
150.0 -2873552.27721
160.0 -2873555.167
170.0 -2873558.09992
180.0 -2873561.07483
190.0 -2873564.09065
200.0 -2873567.14642
210.0 -2873570.24122
220.0 -2873573.37421
230.0 -2873576.54458
240.0 -2873579.75157
250.0 -2873582.99445
260.0 -2873586.27252
270.0 -2873589.5851
280.0 -2873592.93155
290.0 -2873596.31123
300.0 -2873599.72353
310.0 -2873603.16787
320.0 -2873606.64366
330.0 -2873610.15034
340.0 -2873613.68738
350.0 -2873617.25424
360.0 -2873620.85042
370.0 -2873624.4754
380.0 -2873628.12869
390.0 -2873631.80983
400.0 -2873635.51835
410.0 -2873639.2538
420.0 -2873643.01573
430.0 -2873646.80373
440.0 -2873650.61736
450.0 -2873654.45624
460.0 -2873658.31994
470.0 -2873662.20811
480.0 -2873666.12034
490.0 -2873670.05629
500.0 -2873674.01558
510.0 -2873677.99787
520.0 -2873682.00283
530.0 -2873686.03011
540.0 -2873690.0794
550.0 -2873694.15038
560.0 -2873698.24274
570.0 -2873702.35618
580.0 -2873706.49041
590.0 -2873710.64514
600.0 -2873714.82009
610.0 -2873719.01499
620.0 -2873723.22958
630.0 -2873727.46359
640.0 -2873731.71677
650.0 -2873735.98887
660.0 -2873740.27965
670.0 -2873744.58887
680.0 -2873748.91631
690.0 -2873753.26173
700.0 -2873757.62491
710.0 -2873762.00565
720.0 -2873766.40372
730.0 -2873770.81892
740.0 -2873775.25104
750.0 -2873779.6999
760.0 -2873784.16529
770.0 -2873788.64703
780.0 -2873793.14493
790.0 -2873797.65881
800.0 -2873802.18849
810.0 -2873806.7338
820.0 -2873811.29456
830.0 -2873815.87062
840.0 -2873820.46179
850.0 -2873825.06793
860.0 -2873829.68888
870.0 -2873834.32448
880.0 -2873838.97458
890.0 -2873843.63904
900.0 -2873848.3177
910.0 -2873853.01042
920.0 -2873857.71707
930.0 -2873862.43751
940.0 -2873867.17159
950.0 -2873871.9192
960.0 -2873876.68019
970.0 -2873881.45445
980.0 -2873886.24184
990.0 -2873891.04225
1000.0 -2873895.85554
1010.0 -2873900.68161
1020.0 -2873905.52034
1030.0 -2873910.37161
1040.0 -2873915.23531
1050.0 -2873920.11132
1060.0 -2873924.99955
1070.0 -2873929.89987
1080.0 -2873934.8122
1090.0 -2873939.73642
1100.0 -2873944.67242
1110.0 -2873949.62013
1120.0 -2873954.57942
1130.0 -2873959.55021
1140.0 -2873964.5324
1150.0 -2873969.5259
1160.0 -2873974.53061
1170.0 -2873979.54644
1180.0 -2873984.57331
1190.0 -2873989.61113
1200.0 -2873994.6598
1210.0 -2873999.71925
1220.0 -2874004.78938
1230.0 -2874009.87013
1240.0 -2874014.9614
1250.0 -2874020.06311
1260.0 -2874025.17519
1270.0 -2874030.29755
1280.0 -2874035.43013
1290.0 -2874040.57284
1300.0 -2874045.72561
1310.0 -2874050.88837
1320.0 -2874056.06104
1330.0 -2874061.24355
1340.0 -2874066.43583
1350.0 -2874071.63782
1360.0 -2874076.84943
1370.0 -2874082.07061
1380.0 -2874087.3013
1390.0 -2874092.54141
1400.0 -2874097.79089
1410.0 -2874103.04967
1420.0 -2874108.3177
1430.0 -2874113.5949
1440.0 -2874118.88122
1450.0 -2874124.17659
1460.0 -2874129.48096
1470.0 -2874134.79426
1480.0 -2874140.11645
1490.0 -2874145.44745
1500.0 -2874150.78721
1510.0 -2874156.13568
1520.0 -2874161.49281
1530.0 -2874166.85852
1540.0 -2874172.23278
1550.0 -2874177.61553
1560.0 -2874183.00671
1570.0 -2874188.40628
1580.0 -2874193.81418
1590.0 -2874199.23036
1600.0 -2874204.65476
1610.0 -2874210.08735
1620.0 -2874215.52807
1630.0 -2874220.97687
1640.0 -2874226.43371
1650.0 -2874231.89853
1660.0 -2874237.3713
1670.0 -2874242.85195
1680.0 -2874248.34046
1690.0 -2874253.83676
1700.0 -2874259.34083
1710.0 -2874264.85261
1720.0 -2874270.37205
1730.0 -2874275.89913
1740.0 -2874281.43378
1750.0 -2874286.97598
1760.0 -2874292.52568
1770.0 -2874298.08283
1780.0 -2874303.6474
1790.0 -2874309.21934
1800.0 -2874314.79862
1810.0 -2874320.3852
1820.0 -2874325.97903
1830.0 -2874331.58009
1840.0 -2874337.18832
1850.0 -2874342.80369
1860.0 -2874348.42616
1870.0 -2874354.05571
1880.0 -2874359.69228
1890.0 -2874365.33584
1900.0 -2874370.98636
1910.0 -2874376.6438
1920.0 -2874382.30813
1930.0 -2874387.97931
1940.0 -2874393.6573
1950.0 -2874399.34208
1960.0 -2874405.0336
1970.0 -2874410.73183
1980.0 -2874416.43675
1990.0 -2874422.14831
2000.0 -2874427.86649
2010.0 -2874433.59125
2020.0 -2874439.32257
2030.0 -2874445.06039
2040.0 -2874450.80471
2050.0 -2874456.55548
2060.0 -2874462.31268
2070.0 -2874468.07627
2080.0 -2874473.84623
2090.0 -2874479.62252
2100.0 -2874485.40511
2110.0 -2874491.19398
2120.0 -2874496.98909
2130.0 -2874502.79043
2140.0 -2874508.59795
2150.0 -2874514.41162
2160.0 -2874520.23144
2170.0 -2874526.05735
2180.0 -2874531.88934
2190.0 -2874537.72738
2200.0 -2874543.57144
2210.0 -2874549.4215
2220.0 -2874555.27752
2230.0 -2874561.13949
2240.0 -2874567.00737
2250.0 -2874572.88114
2260.0 -2874578.76077
2270.0 -2874584.64624
2280.0 -2874590.53753
2290.0 -2874596.4346
2300.0 -2874602.33744
2310.0 -2874608.24601
2320.0 -2874614.1603
2330.0 -2874620.08027
2340.0 -2874626.00592
2350.0 -2874631.9372
2360.0 -2874637.8741
2370.0 -2874643.8166
2380.0 -2874649.76467
2390.0 -2874655.71829
2400.0 -2874661.67743
2410.0 -2874667.64207
2420.0 -2874673.6122
2430.0 -2874679.58778
2440.0 -2874685.5688
2450.0 -2874691.55523
2460.0 -2874697.54705
2470.0 -2874703.54425
2480.0 -2874709.54679
2490.0 -2874715.55466
2500.0 -2874721.56784
2510.0 -2874727.5863
2520.0 -2874733.61003
2530.0 -2874739.639
2540.0 -2874745.6732
2550.0 -2874751.7126
2560.0 -2874757.75718
2570.0 -2874763.80692
2580.0 -2874769.86181
2590.0 -2874775.92183
2600.0 -2874781.98694
2610.0 -2874788.05715
2620.0 -2874794.13241
2630.0 -2874800.21273
2640.0 -2874806.29807
2650.0 -2874812.38842
2660.0 -2874818.48376
2670.0 -2874824.58407
2680.0 -2874830.68934
2690.0 -2874836.79954
2700.0 -2874842.91465
2710.0 -2874849.03467
2720.0 -2874855.15957
2730.0 -2874861.28933
2740.0 -2874867.42393
2750.0 -2874873.56336
2760.0 -2874879.70761
2770.0 -2874885.85664
2780.0 -2874892.01046
2790.0 -2874898.16903
2800.0 -2874904.33235
2810.0 -2874910.50039
2820.0 -2874916.67314
2830.0 -2874922.85058
2840.0 -2874929.0327
2850.0 -2874935.21948
2860.0 -2874941.4109
2870.0 -2874947.60695
2880.0 -2874953.80761
2890.0 -2874960.01286
2900.0 -2874966.2227
2910.0 -2874972.4371
2920.0 -2874978.65605
2930.0 -2874984.87954
2940.0 -2874991.10754
2950.0 -2874997.34004
2960.0 -2875003.57703
2970.0 -2875009.8185
2980.0 -2875016.06442
2990.0 -2875022.31479
3000.0 -2875028.56958
3010.0 -2875034.82879
3020.0 -2875041.0924
3030.0 -2875047.36039
3040.0 -2875053.63275
