#temperature (K)# #Gibbs free energy (kJ / mol)#
100.0 -6705065.72717
110.0 -6705068.96745
120.0 -6705072.30996
130.0 -6705075.75375
140.0 -6705079.29773
150.0 -6705082.94069
160.0 -6705086.68134
170.0 -6705090.51835
180.0 -6705094.45034
190.0 -6705098.47594
200.0 -6705102.59375
210.0 -6705106.80238
220.0 -6705111.10046
230.0 -6705115.48659
240.0 -6705119.95942
250.0 -6705124.51758
260.0 -6705129.15974
270.0 -6705133.88457
280.0 -6705138.69075
290.0 -6705143.57699
300.0 -6705148.54201
310.0 -6705153.58455
320.0 -6705158.70337
330.0 -6705163.89726
340.0 -6705169.16501
350.0 -6705174.50544
360.0 -6705179.9174
370.0 -6705185.39976
380.0 -6705190.95141
390.0 -6705196.57125
400.0 -6705202.25821
410.0 -6705208.01126
420.0 -6705213.82937
430.0 -6705219.71154
440.0 -6705225.65679
450.0 -6705231.66417
460.0 -6705237.73273
470.0 -6705243.86157
480.0 -6705250.04978
490.0 -6705256.2965
500.0 -6705262.60088
510.0 -6705268.96207
520.0 -6705275.37926
530.0 -6705281.85166
540.0 -6705288.37849
550.0 -6705294.95899
560.0 -6705301.59241
570.0 -6705308.27804
580.0 -6705315.01515
590.0 -6705321.80307
600.0 -6705328.6411
610.0 -6705335.5286
620.0 -6705342.46491
630.0 -6705349.44939
640.0 -6705356.48145
650.0 -6705363.56046
660.0 -6705370.68583
670.0 -6705377.857
680.0 -6705385.07339
690.0 -6705392.33446
700.0 -6705399.63965
710.0 -6705406.98845
720.0 -6705414.38032
730.0 -6705421.81478
740.0 -6705429.29131
750.0 -6705436.80944
760.0 -6705444.36869
770.0 -6705451.96859
780.0 -6705459.60869
790.0 -6705467.28854
800.0 -6705475.0077
810.0 -6705482.76574
820.0 -6705490.56225
830.0 -6705498.39681
840.0 -6705506.26901
850.0 -6705514.17846
860.0 -6705522.12478
870.0 -6705530.10758
880.0 -6705538.12649
890.0 -6705546.18113
900.0 -6705554.27116
910.0 -6705562.39622
920.0 -6705570.55597
930.0 -6705578.75005
940.0 -6705586.97815
950.0 -6705595.23992
960.0 -6705603.53506
970.0 -6705611.86325
980.0 -6705620.22416
990.0 -6705628.61751
1000.0 -6705637.04299
1010.0 -6705645.5003
1020.0 -6705653.98917
1030.0 -6705662.50929
1040.0 -6705671.0604
1050.0 -6705679.64222
1060.0 -6705688.25448
1070.0 -6705696.89691
1080.0 -6705705.56926
1090.0 -6705714.27126
1100.0 -6705723.00267
1110.0 -6705731.76323
1120.0 -6705740.5527
1130.0 -6705749.37085
1140.0 -6705758.21743
1150.0 -6705767.09221
1160.0 -6705775.99496
1170.0 -6705784.92546
1180.0 -6705793.88348
1190.0 -6705802.86881
1200.0 -6705811.88122
1210.0 -6705820.92052
1220.0 -6705829.98648
1230.0 -6705839.07891
1240.0 -6705848.19759
1250.0 -6705857.34234
1260.0 -6705866.51295
1270.0 -6705875.70923
1280.0 -6705884.93098
1290.0 -6705894.17803
1300.0 -6705903.45018
1310.0 -6705912.74725
1320.0 -6705922.06906
1330.0 -6705931.41543
1340.0 -6705940.78618
1350.0 -6705950.18115
1360.0 -6705959.60017
1370.0 -6705969.04305
1380.0 -6705978.50965
1390.0 -6705987.99979
1400.0 -6705997.51331
1410.0 -6706007.05005
1420.0 -6706016.60986
1430.0 -6706026.19257
1440.0 -6706035.79805
1450.0 -6706045.42613
1460.0 -6706055.07666
1470.0 -6706064.7495
1480.0 -6706074.44451
1490.0 -6706084.16153
1500.0 -6706093.90044
1510.0 -6706103.66107
1520.0 -6706113.44331
1530.0 -6706123.24701
1540.0 -6706133.07203
1550.0 -6706142.91825
1560.0 -6706152.78553
1570.0 -6706162.67375
1580.0 -6706172.58276
1590.0 -6706182.51245
1600.0 -6706192.46269
1610.0 -6706202.43336
1620.0 -6706212.42433
1630.0 -6706222.43549
1640.0 -6706232.46671
1650.0 -6706242.51787
1660.0 -6706252.58886
1670.0 -6706262.67956
1680.0 -6706272.78986
1690.0 -6706282.91965
1700.0 -6706293.06881
1710.0 -6706303.23723
1720.0 -6706313.42481
1730.0 -6706323.63143
1740.0 -6706333.85699
1750.0 -6706344.10138
1760.0 -6706354.3645
1770.0 -6706364.64625
1780.0 -6706374.94652
1790.0 -6706385.26521
1800.0 -6706395.60222
1810.0 -6706405.95746
1820.0 -6706416.33082
1830.0 -6706426.72221
1840.0 -6706437.13153
1850.0 -6706447.55869
1860.0 -6706458.00359
1870.0 -6706468.46614
1880.0 -6706478.94625
1890.0 -6706489.44383
1900.0 -6706499.95878
1910.0 -6706510.49102
1920.0 -6706521.04046
1930.0 -6706531.60702
1940.0 -6706542.1906
1950.0 -6706552.79112
1960.0 -6706563.40849
1970.0 -6706574.04264
1980.0 -6706584.69347
1990.0 -6706595.36091
2000.0 -6706606.04487
2010.0 -6706616.74528
2020.0 -6706627.46205
2030.0 -6706638.1951
2040.0 -6706648.94436
2050.0 -6706659.70974
2060.0 -6706670.49118
2070.0 -6706681.28859
2080.0 -6706692.1019
2090.0 -6706702.93104
2100.0 -6706713.77592
2110.0 -6706724.63649
2120.0 -6706735.51265
2130.0 -6706746.40435
2140.0 -6706757.3115
2150.0 -6706768.23405
2160.0 -6706779.17191
2170.0 -6706790.12503
2180.0 -6706801.09332
2190.0 -6706812.07673
2200.0 -6706823.07518
2210.0 -6706834.08861
2220.0 -6706845.11695
2230.0 -6706856.16013
2240.0 -6706867.2181
2250.0 -6706878.29077
2260.0 -6706889.3781
2270.0 -6706900.48002
2280.0 -6706911.59646
2290.0 -6706922.72736
2300.0 -6706933.87266
2310.0 -6706945.03229
2320.0 -6706956.2062
2330.0 -6706967.39433
2340.0 -6706978.59662
2350.0 -6706989.813
2360.0 -6707001.04342
2370.0 -6707012.28781
2380.0 -6707023.54613
2390.0 -6707034.81831
2400.0 -6707046.1043
2410.0 -6707057.40404
2420.0 -6707068.71747
2430.0 -6707080.04453
2440.0 -6707091.38518
2450.0 -6707102.73936
2460.0 -6707114.10701
2470.0 -6707125.48808
2480.0 -6707136.88251
2490.0 -6707148.29026
2500.0 -6707159.71127
2510.0 -6707171.14548
2520.0 -6707182.59285
2530.0 -6707194.05333
2540.0 -6707205.52686
2550.0 -6707217.01339
2560.0 -6707228.51287
2570.0 -6707240.02525
2580.0 -6707251.55049
2590.0 -6707263.08853
2600.0 -6707274.63933
2610.0 -6707286.20283
2620.0 -6707297.77899
2630.0 -6707309.36776
2640.0 -6707320.9691
2650.0 -6707332.58295
2660.0 -6707344.20927
2670.0 -6707355.84802
2680.0 -6707367.49914
2690.0 -6707379.16259
2700.0 -6707390.83833
2710.0 -6707402.52632
2720.0 -6707414.2265
2730.0 -6707425.93883
2740.0 -6707437.66327
2750.0 -6707449.39978
2760.0 -6707461.14831
2770.0 -6707472.90881
2780.0 -6707484.68126
2790.0 -6707496.46559
2800.0 -6707508.26178
2810.0 -6707520.06978
2820.0 -6707531.88954
2830.0 -6707543.72104
2840.0 -6707555.56422
2850.0 -6707567.41904
2860.0 -6707579.28547
2870.0 -6707591.16346
2880.0 -6707603.05298
2890.0 -6707614.95398
2900.0 -6707626.86643
2910.0 -6707638.79029
2920.0 -6707650.72551
2930.0 -6707662.67206
2940.0 -6707674.62991
2950.0 -6707686.59901
2960.0 -6707698.57932
2970.0 -6707710.57081
2980.0 -6707722.57344
2990.0 -6707734.58718
3000.0 -6707746.61198
3010.0 -6707758.64782
3020.0 -6707770.69464
3030.0 -6707782.75243
3040.0 -6707794.82114
