#temperature (K)# #Gibbs free energy (kJ / mol)#
100.0 -26259525.1376
110.0 -26259529.5092
120.0 -26259534.1097
130.0 -26259538.9379
140.0 -26259543.9921
150.0 -26259549.27
160.0 -26259554.7693
170.0 -26259560.4871
180.0 -26259566.4205
190.0 -26259572.5666
200.0 -26259578.9222
210.0 -26259585.4843
220.0 -26259592.2496
230.0 -26259599.215
240.0 -26259606.3773
250.0 -26259613.7333
260.0 -26259621.2798
270.0 -26259629.0138
280.0 -26259636.9321
290.0 -26259645.0317
300.0 -26259653.3094
310.0 -26259661.7625
320.0 -26259670.3878
330.0 -26259679.1825
340.0 -26259688.1438
350.0 -26259697.2688
360.0 -26259706.555
370.0 -26259715.9995
380.0 -26259725.5999
390.0 -26259735.3534
400.0 -26259745.2577
410.0 -26259755.3103
420.0 -26259765.5087
430.0 -26259775.8507
440.0 -26259786.3341
450.0 -26259796.9564
460.0 -26259807.7157
470.0 -26259818.6098
480.0 -26259829.6365
490.0 -26259840.794
500.0 -26259852.0802
510.0 -26259863.4932
520.0 -26259875.0311
530.0 -26259886.6922
540.0 -26259898.4745
550.0 -26259910.3765
560.0 -26259922.3963
570.0 -26259934.5324
580.0 -26259946.783
590.0 -26259959.1467
600.0 -26259971.6219
610.0 -26259984.2071
620.0 -26259996.9008
630.0 -26260009.7016
640.0 -26260022.608
650.0 -26260035.6188
660.0 -26260048.7325
670.0 -26260061.9479
680.0 -26260075.2636
690.0 -26260088.6785
700.0 -26260102.1913
710.0 -26260115.8008
720.0 -26260129.5059
730.0 -26260143.3053
740.0 -26260157.1981
750.0 -26260171.183
760.0 -26260185.2591
770.0 -26260199.4252
780.0 -26260213.6804
790.0 -26260228.0236
800.0 -26260242.4539
810.0 -26260256.9703
820.0 -26260271.5719
830.0 -26260286.2576
840.0 -26260301.0267
850.0 -26260315.8783
860.0 -26260330.8114
870.0 -26260345.8252
880.0 -26260360.9189
890.0 -26260376.0917
900.0 -26260391.3427
910.0 -26260406.6712
920.0 -26260422.0764
930.0 -26260437.5575
940.0 -26260453.1138
950.0 -26260468.7446
960.0 -26260484.4491
970.0 -26260500.2267
980.0 -26260516.0766
990.0 -26260531.9981
1000.0 -26260547.9907
1010.0 -26260564.0536
1020.0 -26260580.1862
1030.0 -26260596.3878
1040.0 -26260612.6579
1050.0 -26260628.9958
1060.0 -26260645.401
1070.0 -26260661.8728
1080.0 -26260678.4106
1090.0 -26260695.014
1100.0 -26260711.6822
1110.0 -26260728.4149
1120.0 -26260745.2113
1130.0 -26260762.0711
1140.0 -26260778.9936
1150.0 -26260795.9784
1160.0 -26260813.0249
1170.0 -26260830.1327
1180.0 -26260847.3012
1190.0 -26260864.53
1200.0 -26260881.8185
1210.0 -26260899.1664
1220.0 -26260916.5731
1230.0 -26260934.0382
1240.0 -26260951.5612
1250.0 -26260969.1417
1260.0 -26260986.7793
1270.0 -26261004.4736
1280.0 -26261022.224
1290.0 -26261040.0302
1300.0 -26261057.8918
1310.0 -26261075.8083
1320.0 -26261093.7794
1330.0 -26261111.8047
1340.0 -26261129.8838
1350.0 -26261148.0162
1360.0 -26261166.2017
1370.0 -26261184.4399
1380.0 -26261202.7303
1390.0 -26261221.0726
1400.0 -26261239.4665
1410.0 -26261257.9116
1420.0 -26261276.4076
1430.0 -26261294.954
1440.0 -26261313.5507
1450.0 -26261332.1972
1460.0 -26261350.8931
1470.0 -26261369.6383
1480.0 -26261388.4323
1490.0 -26261407.2749
1500.0 -26261426.1657
1510.0 -26261445.1044
1520.0 -26261464.0907
1530.0 -26261483.1243
1540.0 -26261502.2049
1550.0 -26261521.3323
1560.0 -26261540.506
1570.0 -26261559.7259
1580.0 -26261578.9917
1590.0 -26261598.303
1600.0 -26261617.6596
1610.0 -26261637.0612
1620.0 -26261656.5076
1630.0 -26261675.9984
1640.0 -26261695.5335
1650.0 -26261715.1125
1660.0 -26261734.7352
1670.0 -26261754.4013
1680.0 -26261774.1106
1690.0 -26261793.8629
1700.0 -26261813.6578
1710.0 -26261833.4952
1720.0 -26261853.3748
1730.0 -26261873.2964
1740.0 -26261893.2596
1750.0 -26261913.2644
1760.0 -26261933.3104
1770.0 -26261953.3975
1780.0 -26261973.5254
1790.0 -26261993.6939
1800.0 -26262013.9027
1810.0 -26262034.1517
1820.0 -26262054.4406
1830.0 -26262074.7692
1840.0 -26262095.1373
1850.0 -26262115.5447
1860.0 -26262135.9912
1870.0 -26262156.4766
1880.0 -26262177.0007
1890.0 -26262197.5632
1900.0 -26262218.164
1910.0 -26262238.8029
1920.0 -26262259.4797
1930.0 -26262280.1942
1940.0 -26262300.9461
1950.0 -26262321.7354
1960.0 -26262342.5618
1970.0 -26262363.4252
1980.0 -26262384.3253
1990.0 -26262405.262
2000.0 -26262426.2351
2010.0 -26262447.2443
2020.0 -26262468.2897
2030.0 -26262489.3709
2040.0 -26262510.4878
2050.0 -26262531.6402
2060.0 -26262552.8279
2070.0 -26262574.0508
2080.0 -26262595.3088
2090.0 -26262616.6016
2100.0 -26262637.9291
2110.0 -26262659.2911
2120.0 -26262680.6875
2130.0 -26262702.118
2140.0 -26262723.5827
2150.0 -26262745.0812
2160.0 -26262766.6134
2170.0 -26262788.1792
2180.0 -26262809.7785
2190.0 -26262831.411
2200.0 -26262853.0767
2210.0 -26262874.7753
2220.0 -26262896.5068
2230.0 -26262918.271
2240.0 -26262940.0677
2250.0 -26262961.8968
2260.0 -26262983.7581
2270.0 -26263005.6516
2280.0 -26263027.5771
2290.0 -26263049.5344
2300.0 -26263071.5234
2310.0 -26263093.544
2320.0 -26263115.596
2330.0 -26263137.6793
2340.0 -26263159.7938
2350.0 -26263181.9394
2360.0 -26263204.1158
2370.0 -26263226.323
2380.0 -26263248.5609
2390.0 -26263270.8293
2400.0 -26263293.128
2410.0 -26263315.4571
2420.0 -26263337.8163
2430.0 -26263360.2055
2440.0 -26263382.6247
2450.0 -26263405.0736
2460.0 -26263427.5522
2470.0 -26263450.0603
2480.0 -26263472.5978
2490.0 -26263495.1647
2500.0 -26263517.7607
2510.0 -26263540.3859
2520.0 -26263563.04
2530.0 -26263585.7229
2540.0 -26263608.4346
2550.0 -26263631.1749
2560.0 -26263653.9437
2570.0 -26263676.7409
2580.0 -26263699.5664
2590.0 -26263722.4201
2600.0 -26263745.3019
2610.0 -26263768.2117
2620.0 -26263791.1493
2630.0 -26263814.1147
2640.0 -26263837.1078
2650.0 -26263860.1284
2660.0 -26263883.1764
2670.0 -26263906.2518
2680.0 -26263929.3544
2690.0 -26263952.4842
2700.0 -26263975.6411
2710.0 -26263998.8249
2720.0 -26264022.0355
2730.0 -26264045.2729
2740.0 -26264068.537
2750.0 -26264091.8276
2760.0 -26264115.1446
2770.0 -26264138.4881
2780.0 -26264161.8578
2790.0 -26264185.2537
2800.0 -26264208.6757
2810.0 -26264232.1237
2820.0 -26264255.5975
2830.0 -26264279.0972
2840.0 -26264302.6227
2850.0 -26264326.1737
2860.0 -26264349.7503
2870.0 -26264373.3524
2880.0 -26264396.9798
2890.0 -26264420.6325
2900.0 -26264444.3104
2910.0 -26264468.0134
2920.0 -26264491.7415
2930.0 -26264515.4944
2940.0 -26264539.2723
2950.0 -26264563.0749
2960.0 -26264586.9021
2970.0 -26264610.754
2980.0 -26264634.6304
2990.0 -26264658.5313
3000.0 -26264682.4565
3010.0 -26264706.406
3020.0 -26264730.3797
3030.0 -26264754.3775
3040.0 -26264778.3993
